IESNA:LM-63-2002
[TEST] Viso  - serial: n/a sensor serial: n/a
[TESTLAB] Viso  - serial: n/a sensor serial: n/a - Test lab
[MANUFAC] Ljusdesign AB
[ISSUEDATE] 3/10/2025
[LUMINAIRE] Gizmo 3000K 95 CRI 3V 700mA (Lens E+)
[LUMCAT] N/A
TILT=NONE
1 129 1 37 5 1 2 -0.02 -0.02 0
1.0 1.0 2.10
0 2.5 5 7.5 10 12.5 15 17.5 20 22.5 25 27.5 30 32.5 35 37.5 40 42.5 45 47.5 50 52.5 55 57.5 60 62.5 65 67.5 70 72.5 75 77.5 80 82.5 85 87.5 90
0 90 180 270 360 
351.467773 337.26474 302.901123 252.257172 195.617798 142.960526 99.894417 68.375641 46.775444 31.86447 21.818777 16.169531 13.118567 11.189775 9.82402 8.802858 7.906739 6.888326 5.717759 4.480141 3.355443 2.650995 2.236133 1.871247
 1.532738 1.221236 0.964863 0.724422 0.423891 0.244588 0.227869 0.224554 0.193489 0.176074 0.173832 0.150612 0.17347
351.467773 350.74823 339.827881 322.703552 301.515076 274.472046 242.477051 209.857697 177.505753 147.206238 117.294991 90.198456 67.655998 48.430614 33.507877 22.423765 14.702418 9.810381 6.639327 4.62708 3.356155 2.606209 2.129692
 1.79601 1.550578 1.330215 1.13018 0.887337 0.582888 0.34209 0.230617 0.189416 0.184207 0.184755 0.192656 0.187132 0.180318
351.467773 336.189911 301.994812 251.989792 195.499908 144.372955 103.849228 73.038231 49.657455 32.071087 20.407488 14.232012 11.111352 9.18939 7.856311 6.895402 6.124827 5.324958 4.469756 3.599726 2.736946 2.1188 1.753058 1.496642
 1.263427 1.035074 0.815009 0.600963 0.411471 0.260008 0.225679 0.22984 0.200622 0.202714 0.224928 0.249582 0
351.467773 348.880676 337.14679 321.505737 300.408722 274.501526 244.257263 210.928436 177.518127 143.817902 112.06974 85.372574 62.078613 43.983921 30.512915 20.803127 14.008646 9.499578 6.596149 4.625741 3.408973 2.670384 2.180159
 1.791598 1.497314 1.248573 0.953819 0.618407 0.368466 0.231773 0.185634 0.182693 0.188082 0.183926 0.171244 0 0
351.467773 337.26474 302.901123 252.257172 195.617798 142.960526 99.894417 68.375641 46.775444 31.86447 21.818777 16.169531 13.118567 11.189775 9.82402 8.802858 7.906739 6.888326 5.717759 4.480141 3.355443 2.650995 2.236133 1.871247
 1.532738 1.221236 0.964863 0.724422 0.423891 0.244588 0.227869 0.224554 0.193489 0.176074 0.173832 0.150612 0.17347
